Bruker Nano GmbH Berlin, Germany
Esprit 1.9

Date: 4/8/2021 12:39:09 PM
Real time: 2164
Life time: 2063
Pulse density: 24238


Detector type: Custom type
Window type: Custom type
Detector thickness: 0.45
Si dead layer:0.08

Calibration, lin.: 10.032
Calibration, abs.: -958.257
Mn FWHM: 142.564
Fano factor: 0.111
Channels: 4096

Energy Counts
-0.9583    0
-0.9482    0
-0.9382    0
-0.9282    0
-0.9181    0
-0.9081    0
-0.8981    0
 -0.888    0
 -0.878    0
 -0.868    0
-0.8579    0
-0.8479    0
-0.8379    0
-0.8278    0
-0.8178    0
-0.8078    0
-0.7977    0
-0.7877    0
-0.7777    0
-0.7676    0
-0.7576    0
-0.7476    0
-0.7376    0
-0.7275    0
-0.7175    0
-0.7075    0
-0.6974    0
-0.6874    0
-0.6774    0
-0.6673    0
-0.6573    0
-0.6473    0
-0.6372    0
-0.6272    0
-0.6172    0
-0.6071    0
-0.5971    0
-0.5871    0
 -0.577    0
 -0.567    0
 -0.557    0
-0.5469    0
-0.5369    0
-0.5269    0
-0.5168    0
-0.5068    0
-0.4968    0
-0.4868    0
-0.4767    0
-0.4667    0
-0.4567    0
-0.4466    0
-0.4366    0
-0.4266    0
-0.4165    0
-0.4065    0
-0.3965    0
-0.3864    0
-0.3764    0
-0.3664    0
-0.3563    0
-0.3463    0
-0.3363    0
-0.3262    0
-0.3162    0
-0.3062    0
-0.2961    0
-0.2861    0
-0.2761    0
 -0.266    0
 -0.256    0
 -0.246    0
 -0.236    0
-0.2259    0
-0.2159    1
-0.2059    0
-0.1958    0
-0.1858    0
-0.1758    0
-0.1657    0
-0.1557    0
-0.1457    0
-0.1356    0
-0.1256    2
-0.1156    9
-0.1055   18
-0.0955   47
-0.0855  126
-0.0754  186
-0.0654  373
-0.0554  626
-0.0453  992
-0.0353 1391
-0.0253 1900
-0.0152 2220
-0.0052 2383
 0.0048 2430
 0.0148 2179
 0.0249 1882
 0.0349 1385
 0.0449  997
  0.055  658
  0.065  406
  0.075  202
 0.0851  116
 0.0951   49
 0.1051   30
 0.1152   10
 0.1252    1
 0.1352    2
 0.1453    1
 0.1553    0
 0.1653    0
 0.1754    0
 0.1854    0
 0.1954    0
 0.2055    0
 0.2155    0
 0.2255    0
 0.2356    0
 0.2456    0
 0.2556    0
 0.2656    0
 0.2757    0
 0.2857    0
 0.2957    0
 0.3058    0
 0.3158    0
 0.3258    0
 0.3359    0
 0.3459    0
 0.3559    0
  0.366    0
  0.376    1
  0.386    0
 0.3961    0
 0.4061    1
 0.4161    0
 0.4262    0
 0.4362    1
 0.4462    0
 0.4563    0
 0.4663    1
 0.4763    1
 0.4864    0
 0.4964    0
 0.5064    0
 0.5164    0
 0.5265    0
 0.5365    0
 0.5465    0
 0.5566    0
 0.5666    0
 0.5766    0
 0.5867    1
 0.5967    0
 0.6067    0
 0.6168    0
 0.6268    0
 0.6368    0
 0.6469    0
 0.6569    0
 0.6669    0
  0.677    0
  0.687    0
  0.697    1
 0.7071    0
 0.7171    0
 0.7271    1
 0.7372    0
 0.7472    0
 0.7572    1
 0.7672    0
 0.7773    0
 0.7873    0
 0.7973    0
 0.8074    1
 0.8174    0
 0.8274    1
 0.8375    1
 0.8475    2
 0.8575    1
 0.8676    0
 0.8776    3
 0.8876    2
 0.8977    2
 0.9077    1
 0.9177    1
 0.9278    7
 0.9378    2
 0.9478    1
 0.9579    2
 0.9679    0
 0.9779    2
  0.988    1
  0.998    0
  1.008    0
  1.018    0
 1.0281    1
 1.0381    1
 1.0481    1
 1.0582    0
 1.0682    0
 1.0782    0
 1.0883    0
 1.0983    0
 1.1083    0
 1.1184    0
 1.1284    0
 1.1384    0
 1.1485    0
 1.1585    0
 1.1685    0
 1.1786    0
 1.1886    0
 1.1986    0
 1.2087    1
 1.2187    0
 1.2287    0
 1.2388    0
 1.2488    0
 1.2588    1
 1.2688    0
 1.2789    0
 1.2889    0
 1.2989    1
  1.309    0
  1.319    0
  1.329    0
 1.3391    0
 1.3491    0
 1.3591    0
 1.3692    0
 1.3792    0
 1.3892    0
 1.3993    0
 1.4093    0
 1.4193    0
 1.4294    1
 1.4394    2
 1.4494    1
 1.4595    0
 1.4695    1
 1.4795    0
 1.4896    0
 1.4996    1
 1.5096    0
 1.5196    0
 1.5297    0
 1.5397    1
 1.5497    0
 1.5598    0
 1.5698    0
 1.5798    0
 1.5899    0
 1.5999    0
 1.6099    1
   1.62    0
   1.63    0
   1.64    0
 1.6501    0
 1.6601    0
 1.6701    0
 1.6802    0
 1.6902    0
 1.7002    0
 1.7103    0
 1.7203    0
 1.7303    0
 1.7404    0
 1.7504    1
 1.7604    0
 1.7704    1
 1.7805    0
 1.7905    0
 1.8005    0
 1.8106    0
 1.8206    1
 1.8306    0
 1.8407    0
 1.8507    0
 1.8607    0
 1.8708    2
 1.8808    0
 1.8908    0
 1.9009    1
 1.9109    0
 1.9209    1
  1.931    0
  1.941    1
  1.951    0
 1.9611    0
 1.9711    0
 1.9811    0
 1.9912    0
 2.0012    0
 2.0112    0
 2.0212    0
 2.0313    0
 2.0413    1
 2.0513    1
 2.0614    0
 2.0714    1
 2.0814    0
 2.0915    0
 2.1015    0
 2.1115    1
 2.1216    0
 2.1316    0
 2.1416    0
 2.1517    0
 2.1617    0
 2.1717    0
 2.1818    0
 2.1918    0
 2.2018    1
 2.2119    1
 2.2219    0
 2.2319    0
  2.242    0
  2.252    1
  2.262    1
  2.272    0
 2.2821    0
 2.2921    0
 2.3021    0
 2.3122    1
 2.3222    0
 2.3322    0
 2.3423    0
 2.3523    1
 2.3623    1
 2.3724    0
 2.3824    1
 2.3924    0
 2.4025    0
 2.4125    1
 2.4225    1
 2.4326    1
 2.4426    0
 2.4526    1
 2.4627    1
 2.4727    0
 2.4827    0
 2.4928    0
 2.5028    0
 2.5128    0
 2.5228    1
 2.5329    1
 2.5429    0
 2.5529    0
  2.563    1
  2.573    0
  2.583    1
 2.5931    1
 2.6031    0
 2.6131    1
 2.6232    0
 2.6332    1
 2.6432    2
 2.6533    1
 2.6633    0
 2.6733    1
 2.6834    1
 2.6934    0
 2.7034    0
 2.7135    0
 2.7235    0
 2.7335    1
 2.7436    2
 2.7536    1
 2.7636    0
 2.7736    0
 2.7837    0
 2.7937    1
 2.8037    1
 2.8138    0
 2.8238    0
 2.8338    0
 2.8439    0
 2.8539    1
 2.8639    0
  2.874    0
  2.884    0
  2.894    0
 2.9041    0
 2.9141    0
 2.9241    0
 2.9342    1
 2.9442    0
 2.9542    0
 2.9643    0
 2.9743    0
 2.9843    0
 2.9944    1
 3.0044    1
 3.0144    0
 3.0244    1
 3.0345    0
 3.0445    0
 3.0545    0
 3.0646    0
 3.0746    1
 3.0846    0
 3.0947    0
 3.1047    0
 3.1147    0
 3.1248    0
 3.1348    0
 3.1448    1
 3.1549    0
 3.1649    0
 3.1749    0
  3.185    1
  3.195    0
  3.205    0
 3.2151    1
 3.2251    1
 3.2351    0
 3.2452    0
 3.2552    0
 3.2652    0
 3.2752    1
 3.2853    1
 3.2953    2
 3.3053    1
 3.3154    1
 3.3254    2
 3.3354    1
 3.3455    1
 3.3555    2
 3.3655    2
 3.3756    1
 3.3856    1
 3.3956    0
 3.4057    0
 3.4157    1
 3.4257    2
 3.4358    2
 3.4458    0
 3.4558    0
 3.4659    1
 3.4759    1
 3.4859    0
  3.496    0
  3.506    0
  3.516    0
  3.526    1
 3.5361    0
 3.5461    0
 3.5561    0
 3.5662    0
 3.5762    0
 3.5862    0
 3.5963    0
 3.6063    0
 3.6163    0
 3.6264    0
 3.6364    0
 3.6464    1
 3.6565    1
 3.6665    0
 3.6765    0
 3.6866    1
 3.6966    1
 3.7066    1
 3.7167    1
 3.7267    2
 3.7367    1
 3.7468    0
 3.7568    0
 3.7668    0
 3.7768    0
 3.7869    2
 3.7969    2
 3.8069    1
  3.817    1
  3.827    0
  3.837    1
 3.8471    1
 3.8571    1
 3.8671    3
 3.8772    4
 3.8872    3
 3.8972    1
 3.9073    0
 3.9173    0
 3.9273    0
 3.9374    0
 3.9474    1
 3.9574    2
 3.9675    2
 3.9775    0
 3.9875    0
 3.9976    0
 4.0076    0
 4.0176    1
 4.0276    0
 4.0377    0
 4.0477    1
 4.0577    0
 4.0678    1
 4.0778    0
 4.0878    0
 4.0979    0
 4.1079    1
 4.1179    1
  4.128    0
  4.138    0
  4.148    0
 4.1581    0
 4.1681    1
 4.1781    1
 4.1882    1
 4.1982    2
 4.2082    1
 4.2183    0
 4.2283    1
 4.2383    1
 4.2484    1
 4.2584    0
 4.2684    1
 4.2784    0
 4.2885    0
 4.2985    1
 4.3085    0
 4.3186    0
 4.3286    0
 4.3386    0
 4.3487    0
 4.3587    0
 4.3687    0
 4.3788    1
 4.3888    0
 4.3988    0
 4.4089    0
 4.4189    1
 4.4289    0
  4.439    1
  4.449    0
  4.459    0
 4.4691    0
 4.4791    0
 4.4891    0
 4.4992    0
 4.5092    0
 4.5192    0
 4.5292    0
 4.5393    0
 4.5493    0
 4.5593    0
 4.5694    0
 4.5794    0
 4.5894    0
 4.5995    0
 4.6095    1
 4.6195    0
 4.6296    0
 4.6396    0
 4.6496    1
 4.6597    0
 4.6697    0
 4.6797    0
 4.6898    0
 4.6998    1
 4.7098    0
 4.7199    1
 4.7299    0
 4.7399    1
   4.75    0
   4.76    0
   4.77    1
   4.78    1
 4.7901    1
 4.8001    1
 4.8101    2
 4.8202    0
 4.8302    0
 4.8402    0
 4.8503    0
 4.8603    0
 4.8703    0
 4.8804    0
 4.8904    0
 4.9004    0
 4.9105    0
 4.9205    0
 4.9305    1
 4.9406    0
 4.9506    0
 4.9606    0
 4.9707    2
 4.9807    0
 4.9907    0
 5.0008    1
 5.0108    0
 5.0208    0
 5.0308    0
 5.0409    0
 5.0509    0
 5.0609    0
  5.071    0
  5.081    0
  5.091    1
 5.1011    0
 5.1111    0
 5.1211    1
 5.1312    0
 5.1412    0
 5.1512    1
 5.1613    1
 5.1713    1
 5.1813    1
 5.1914    2
 5.2014    0
 5.2114    1
 5.2215    0
 5.2315    0
 5.2415    0
 5.2516    0
 5.2616    0
 5.2716    0
 5.2816    0
 5.2917    0
 5.3017    0
 5.3117    1
 5.3218    0
 5.3318    1
 5.3418    0
 5.3519    1
 5.3619    0
 5.3719    2
  5.382    1
  5.392    0
  5.402    1
 5.4121    1
 5.4221    0
 5.4321    1
 5.4422    0
 5.4522    0
 5.4622    2
 5.4723    1
 5.4823    0
 5.4923    0
 5.5024    2
 5.5124    2
 5.5224    0
 5.5324    0
 5.5425    1
 5.5525    1
 5.5625    0
 5.5726    0
 5.5826    1
 5.5926    0
 5.6027    3
 5.6127    1
 5.6227    1
 5.6328    0
 5.6428    0
 5.6528    1
 5.6629    2
 5.6729    2
 5.6829    0
  5.693    2
  5.703    0
  5.713    0
 5.7231    3
 5.7331    0
 5.7431    0
 5.7532    1
 5.7632    0
 5.7732    0
 5.7832    0
 5.7933    1
 5.8033    0
 5.8133    2
 5.8234    0
 5.8334    0
 5.8434    2
 5.8535    0
 5.8635    1
 5.8735    1
 5.8836    0
 5.8936    0
 5.9036    2
 5.9137    1
 5.9237    1
 5.9337    0
 5.9438    0
 5.9538    0
 5.9638    1
 5.9739    1
 5.9839    0
 5.9939    0
  6.004    1
  6.014    0
  6.024    0
  6.034    3
 6.0441    1
 6.0541    1
 6.0641    1
 6.0742    0
 6.0842    0
 6.0942    0
 6.1043    0
 6.1143    3
 6.1243    2
 6.1344    0
 6.1444    2
 6.1544    2
 6.1645    1
 6.1745    0
 6.1845    2
 6.1946    1
 6.2046    3
 6.2146    0
 6.2247    3
 6.2347    0
 6.2447    3
 6.2548    3
 6.2648    4
 6.2748    2
 6.2848    5
 6.2949    2
 6.3049    3
 6.3149    4
  6.325    9
  6.335    0
  6.345    2
 6.3551    0
 6.3651    1
 6.3751    3
 6.3852    4
 6.3952    4
 6.4052    0
 6.4153    0
 6.4253    3
 6.4353    3
 6.4454    4
 6.4554    6
 6.4654    0
 6.4755    3
 6.4855    2
 6.4955    5
 6.5056    3
 6.5156    2
 6.5256    3
 6.5356    2
 6.5457    3
 6.5557    3
 6.5657    3
 6.5758    4
 6.5858    6
 6.5958    5
 6.6059    0
 6.6159    2
 6.6259    3
  6.636    4
  6.646    7
  6.656    3
 6.6661    7
 6.6761    1
 6.6861    1
 6.6962    2
 6.7062    2
 6.7162    2
 6.7263    1
 6.7363    2
 6.7463    5
 6.7564    3
 6.7664    0
 6.7764    1
 6.7864    2
 6.7965    2
 6.8065    2
 6.8165    4
 6.8266    2
 6.8366    2
 6.8466    1
 6.8567    2
 6.8667    3
 6.8767    0
 6.8868    1
 6.8968    0
 6.9068    2
 6.9169    1
 6.9269    0
 6.9369    3
  6.947    4
  6.957    2
  6.967    1
 6.9771    3
 6.9871    3
 6.9971    1
 7.0072    2
 7.0172    4
 7.0272    1
 7.0372    0
 7.0473    1
 7.0573    0
 7.0673    2
 7.0774    0
 7.0874    1
 7.0974    2
 7.1075    0
 7.1175    3
 7.1275    0
 7.1376    0
 7.1476    0
 7.1576    1
 7.1677    3
 7.1777    0
 7.1877    0
 7.1978    1
 7.2078    2
 7.2178    1
 7.2279    1
 7.2379    0
 7.2479    1
  7.258    1
  7.268    0
  7.278    1
  7.288    0
 7.2981    2
 7.3081    0
 7.3181    2
 7.3282    3
 7.3382    2
 7.3482    2
 7.3583    1
 7.3683    0
 7.3783    1
 7.3884    2
 7.3984    1
 7.4084    1
 7.4185    1
 7.4285    3
 7.4385    3
 7.4486    0
 7.4586    3
 7.4686    2
 7.4787    2
 7.4887    3
 7.4987    2
 7.5088    1
 7.5188    2
 7.5288    4
 7.5388    3
 7.5489    2
 7.5589    5
 7.5689    1
  7.579    4
  7.589    2
  7.599    2
 7.6091    1
 7.6191    1
 7.6291    3
 7.6392    3
 7.6492    3
 7.6592    4
 7.6693    7
 7.6793    6
 7.6893    5
 7.6994    5
 7.7094    9
 7.7194    6
 7.7295    7
 7.7395    9
 7.7495    6
 7.7596    8
 7.7696   12
 7.7796    9
 7.7896    9
 7.7997   12
 7.8097   15
 7.8197   20
 7.8298   24
 7.8398   41
 7.8498   47
 7.8599   66
 7.8699   91
 7.8799  142
   7.89  186
    7.9  266
   7.91  351
 7.9201  437
 7.9301  565
 7.9401  708
 7.9502  883
 7.9602 1090
 7.9702 1220
 7.9803 1594
 7.9903 1714
 8.0003 1912
 8.0104 2080
 8.0204 2272
 8.0304 2367
 8.0404 2346
 8.0505 2468
 8.0605 2391
 8.0705 2281
 8.0806 2145
 8.0906 1972
 8.1006 1792
 8.1107 1602
 8.1207 1441
 8.1307 1140
 8.1408 1001
 8.1508  773
 8.1608  652
 8.1709  526
 8.1809  404
 8.1909  270
  8.201  218
  8.211  149
  8.221  105
 8.2311   68
 8.2411   68
 8.2511   39
 8.2612   36
 8.2712   24
 8.2812   12
 8.2912    6
 8.3013   10
 8.3113   13
 8.3213    9
 8.3314    5
 8.3414    2
 8.3514    9
 8.3615    8
 8.3715    4
 8.3815    5
 8.3916    7
 8.4016    2
 8.4116    5
 8.4217    1
 8.4317   12
 8.4417   10
 8.4518    2
 8.4618    7
 8.4718    3
 8.4819    8
 8.4919    5
 8.5019    8
  8.512    9
  8.522    4
  8.532    5
  8.542    5
 8.5521    9
 8.5621    5
 8.5721   10
 8.5822    8
 8.5922    9
 8.6022    5
 8.6123   10
 8.6223    4
 8.6323   17
 8.6424   13
 8.6524   16
 8.6624    5
 8.6725    7
 8.6825   12
 8.6925   10
 8.7026   22
 8.7126   21
 8.7226   26
 8.7327   28
 8.7427   33
 8.7527   45
 8.7628   47
 8.7728   75
 8.7828   77
 8.7928   95
 8.8029  133
 8.8129  142
 8.8229  188
  8.833  199
  8.843  233
  8.853  248
 8.8631  295
 8.8731  339
 8.8831  348
 8.8932  341
 8.9032  327
 8.9132  362
 8.9233  338
 8.9333  344
 8.9433  324
 8.9534  315
 8.9634  279
 8.9734  206
 8.9835  195
 8.9935  161
 9.0035  151
 9.0136  128
 9.0236   70
 9.0336   80
 9.0436   68
 9.0537   50
 9.0637   35
 9.0737   22
 9.0838   21
 9.0938   11
 9.1038   12
 9.1139    9
 9.1239    4
 9.1339    5
  9.144    0
  9.154    2
  9.164    2
 9.1741    1
 9.1841    0
 9.1941    0
 9.2042    0
 9.2142    0
 9.2242    0
 9.2343    0
 9.2443    1
 9.2543    0
 9.2644    0
 9.2744    0
 9.2844    1
 9.2944    0
 9.3045    0
 9.3145    0
 9.3245    0
 9.3346    0
 9.3446    0
 9.3546    0
 9.3647    0
 9.3747    0
 9.3847    0
 9.3948    0
 9.4048    0
 9.4148    2
 9.4249    0
 9.4349    0
 9.4449    0
  9.455    0
  9.465    1
  9.475    0
 9.4851    0
 9.4951    0
 9.5051    0
 9.5152    0
 9.5252    0
 9.5352    0
 9.5452    0
 9.5553    0
 9.5653    0
 9.5753    0
 9.5854    1
 9.5954    0
 9.6054    0
 9.6155    0
 9.6255    0
 9.6355    0
 9.6456    0
 9.6556    0
 9.6656    0
 9.6757    0
 9.6857    0
 9.6957    0
 9.7058    0
 9.7158    0
 9.7258    0
 9.7359    0
 9.7459    0
 9.7559    0
  9.766    0
  9.776    0
  9.786    0
  9.796    0
 9.8061    0
 9.8161    0
 9.8261    0
 9.8362    0
 9.8462    2
 9.8562    0
 9.8663    0
 9.8763    0
 9.8863    1
 9.8964    0
 9.9064    0
 9.9164    0
 9.9265    0
 9.9365    0
 9.9465    0
 9.9566    0
 9.9666    1
 9.9766    0
 9.9867    1
 9.9967    0
10.0067    0
10.0168    0
10.0268    0
10.0368    0
10.0468    0
10.0569    2
10.0669    1
10.0769    0
 10.087    0
 10.097    0
 10.107    0
10.1171    0
10.1271    0
10.1371    0
10.1472    0
10.1572    2
10.1672    0
10.1773    0
10.1873    0
10.1973    0
10.2074    0
10.2174    0
10.2274    0
10.2375    0
10.2475    0
10.2575    0
10.2676    0
10.2776    0
10.2876    0
10.2976    0
10.3077    0
10.3177    0
10.3277    0
10.3378    0
10.3478    0
10.3578    0
10.3679    0
10.3779    0
10.3879    0
 10.398    0
 10.408    0
 10.418    0
10.4281    1
10.4381    1
10.4481    0
10.4582    0
10.4682    2
10.4782    0
10.4883    0
10.4983    0
10.5083    0
10.5184    0
10.5284    0
10.5384    0
10.5484    0
10.5585    0
10.5685    1
10.5785    0
10.5886    1
10.5986    0
10.6086    0
10.6187    0
10.6287    0
10.6387    0
10.6488    0
10.6588    1
10.6688    0
10.6789    0
10.6889    0
10.6989    0
 10.709    0
 10.719    0
 10.729    0
10.7391    0
10.7491    0
10.7591    0
10.7692    1
10.7792    0
10.7892    0
10.7992    1
10.8093    0
10.8193    0
10.8293    0
10.8394    0
10.8494    1
10.8594    0
10.8695    0
10.8795    0
10.8895    0
10.8996    0
10.9096    0
10.9196    0
10.9297    1
10.9397    0
10.9497    0
10.9598    0
10.9698    0
10.9798    0
10.9899    0
10.9999    0
11.0099    0
  11.02    0
  11.03    0
  11.04    0
  11.05    0
11.0601    0
11.0701    0
11.0801    0
11.0902    1
11.1002    0
11.1102    0
11.1203    0
11.1303    1
11.1403    0
11.1504    1
11.1604    0
11.1704    0
11.1805    0
11.1905    0
11.2005    1
11.2106    0
11.2206    0
11.2306    0
11.2407    0
11.2507    0
11.2607    1
11.2708    0
11.2808    2
11.2908    0
11.3008    0
11.3109    0
11.3209    0
11.3309    1
 11.341    0
 11.351    0
 11.361    0
11.3711    0
11.3811    0
11.3911    0
11.4012    1
11.4112    0
11.4212    0
11.4313    1
11.4413    0
11.4513    0
11.4614    0
11.4714    0
11.4814    0
11.4915    0
11.5015    0
11.5115    0
11.5216    1
11.5316    0
11.5416    0
11.5516    0
11.5617    1
11.5717    0
11.5817    1
11.5918    1
11.6018    0
11.6118    0
11.6219    0
11.6319    0
11.6419    0
 11.652    0
 11.662    0
 11.672    0
11.6821    0
11.6921    0
11.7021    0
11.7122    0
11.7222    0
11.7322    0
11.7423    0
11.7523    0
11.7623    0
11.7724    0
11.7824    0
11.7924    1
11.8024    1
11.8125    0
11.8225    0
11.8325    0
11.8426    0
11.8526    1
11.8626    0
11.8727    0
11.8827    0
11.8927    0
11.9028    0
11.9128    0
11.9228    0
11.9329    0
11.9429    0
11.9529    0
 11.963    0
 11.973    0
 11.983    0
11.9931    0
12.0031    0
12.0131    0
12.0232    0
12.0332    0
12.0432    0
12.0532    0
12.0633    1
12.0733    0
12.0833    0
12.0934    0
12.1034    0
12.1134    0
12.1235    0
12.1335    1
12.1435    0
12.1536    0
12.1636    0
12.1736    0
12.1837    0
12.1937    1
12.2037    0
12.2138    1
12.2238    0
12.2338    0
12.2439    0
12.2539    0
12.2639    0
 12.274    0
 12.284    0
 12.294    0
 12.304    0
12.3141    0
12.3241    0
12.3341    0
12.3442    0
12.3542    0
12.3642    0
12.3743    0
12.3843    0
12.3943    0
12.4044    0
12.4144    0
12.4244    0
12.4345    0
12.4445    0
12.4545    0
12.4646    0
12.4746    0
12.4846    0
12.4947    0
12.5047    0
12.5147    0
12.5248    1
12.5348    0
12.5448    1
12.5548    0
12.5649    0
12.5749    0
12.5849    0
 12.595    1
 12.605    0
 12.615    0
12.6251    0
12.6351    0
12.6451    0
12.6552    0
12.6652    0
12.6752    0
12.6853    0
12.6953    0
12.7053    0
12.7154    0
12.7254    0
12.7354    0
12.7455    0
12.7555    0
12.7655    0
12.7756    0
12.7856    0
12.7956    0
12.8056    0
12.8157    0
12.8257    0
12.8357    0
12.8458    1
12.8558    0
12.8658    0
12.8759    0
12.8859    0
12.8959    0
 12.906    0
 12.916    0
 12.926    1
12.9361    0
12.9461    0
12.9561    0
12.9662    0
12.9762    0
12.9862    2
12.9963    0
13.0063    0
13.0163    0
13.0264    1
13.0364    1
13.0464    0
13.0564    0
13.0665    0
13.0765    0
13.0865    1
13.0966    0
