Bruker Nano GmbH Berlin, Germany
Esprit 1.9

Date: 4/8/2021 12:39:05 PM
Real time: 2177
Life time: 2079
Pulse density: 24050


Detector type: Custom type
Window type: Custom type
Detector thickness: 0.45
Si dead layer:0.08

Calibration, lin.: 10.032
Calibration, abs.: -958.257
Mn FWHM: 144.028
Fano factor: 0.111
Channels: 4096

Energy Counts
-0.9583    0
-0.9482    0
-0.9382    0
-0.9282    0
-0.9181    0
-0.9081    0
-0.8981    0
 -0.888    0
 -0.878    0
 -0.868    0
-0.8579    0
-0.8479    0
-0.8379    0
-0.8278    0
-0.8178    0
-0.8078    0
-0.7977    0
-0.7877    0
-0.7777    0
-0.7676    0
-0.7576    0
-0.7476    0
-0.7376    0
-0.7275    0
-0.7175    0
-0.7075    0
-0.6974    0
-0.6874    0
-0.6774    0
-0.6673    0
-0.6573    0
-0.6473    0
-0.6372    0
-0.6272    0
-0.6172    0
-0.6071    0
-0.5971    0
-0.5871    0
 -0.577    0
 -0.567    0
 -0.557    0
-0.5469    0
-0.5369    0
-0.5269    0
-0.5168    0
-0.5068    0
-0.4968    0
-0.4868    0
-0.4767    0
-0.4667    0
-0.4567    0
-0.4466    0
-0.4366    0
-0.4266    0
-0.4165    0
-0.4065    0
-0.3965    0
-0.3864    0
-0.3764    0
-0.3664    0
-0.3563    0
-0.3463    1
-0.3363    0
-0.3262    0
-0.3162    0
-0.3062    0
-0.2961    0
-0.2861    0
-0.2761    0
 -0.266    0
 -0.256    0
 -0.246    0
 -0.236    1
-0.2259    0
-0.2159    0
-0.2059    0
-0.1958    0
-0.1858    0
-0.1758    0
-0.1657    0
-0.1557    0
-0.1457    2
-0.1356    3
-0.1256    3
-0.1156    5
-0.1055   25
-0.0955   57
-0.0855  119
-0.0754  220
-0.0654  377
-0.0554  671
-0.0453  944
-0.0353 1384
-0.0253 1928
-0.0152 2199
-0.0052 2391
 0.0048 2273
 0.0148 2247
 0.0249 1815
 0.0349 1457
 0.0449 1073
  0.055  698
  0.065  397
  0.075  222
 0.0851  112
 0.0951   44
 0.1051   18
 0.1152   10
 0.1252    3
 0.1352    2
 0.1453    0
 0.1553    0
 0.1653    0
 0.1754    0
 0.1854    0
 0.1954    0
 0.2055    0
 0.2155    0
 0.2255    0
 0.2356    0
 0.2456    0
 0.2556    0
 0.2656    0
 0.2757    0
 0.2857    0
 0.2957    0
 0.3058    0
 0.3158    0
 0.3258    0
 0.3359    0
 0.3459    0
 0.3559    0
  0.366    0
  0.376    0
  0.386    1
 0.3961    0
 0.4061    1
 0.4161    1
 0.4262    1
 0.4362    1
 0.4462    1
 0.4563    0
 0.4663    2
 0.4763    0
 0.4864    0
 0.4964    1
 0.5064    0
 0.5164    0
 0.5265    0
 0.5365    0
 0.5465    0
 0.5566    0
 0.5666    1
 0.5766    0
 0.5867    1
 0.5967    0
 0.6067    0
 0.6168    0
 0.6268    0
 0.6368    0
 0.6469    0
 0.6569    0
 0.6669    0
  0.677    0
  0.687    0
  0.697    0
 0.7071    0
 0.7171    0
 0.7271    0
 0.7372    0
 0.7472    0
 0.7572    0
 0.7672    1
 0.7773    0
 0.7873    0
 0.7973    0
 0.8074    0
 0.8174    0
 0.8274    0
 0.8375    1
 0.8475    0
 0.8575    0
 0.8676    0
 0.8776    2
 0.8876    1
 0.8977    3
 0.9077    2
 0.9177    1
 0.9278    4
 0.9378    5
 0.9478    4
 0.9579    1
 0.9679    1
 0.9779    3
  0.988    2
  0.998    1
  1.008    2
  1.018    1
 1.0281    1
 1.0381    0
 1.0481    1
 1.0582    0
 1.0682    0
 1.0782    0
 1.0883    0
 1.0983    0
 1.1083    0
 1.1184    0
 1.1284    0
 1.1384    0
 1.1485    0
 1.1585    0
 1.1685    1
 1.1786    0
 1.1886    0
 1.1986    1
 1.2087    0
 1.2187    0
 1.2287    0
 1.2388    0
 1.2488    1
 1.2588    0
 1.2688    0
 1.2789    0
 1.2889    0
 1.2989    0
  1.309    0
  1.319    0
  1.329    0
 1.3391    0
 1.3491    0
 1.3591    1
 1.3692    1
 1.3792    0
 1.3892    0
 1.3993    0
 1.4093    0
 1.4193    0
 1.4294    0
 1.4394    1
 1.4494    0
 1.4595    0
 1.4695    1
 1.4795    0
 1.4896    0
 1.4996    0
 1.5096    0
 1.5196    0
 1.5297    0
 1.5397    1
 1.5497    0
 1.5598    0
 1.5698    0
 1.5798    0
 1.5899    0
 1.5999    0
 1.6099    0
   1.62    0
   1.63    0
   1.64    0
 1.6501    0
 1.6601    0
 1.6701    0
 1.6802    0
 1.6902    0
 1.7002    0
 1.7103    0
 1.7203    0
 1.7303    0
 1.7404    1
 1.7504    1
 1.7604    0
 1.7704    0
 1.7805    0
 1.7905    0
 1.8005    0
 1.8106    0
 1.8206    0
 1.8306    0
 1.8407    1
 1.8507    0
 1.8607    0
 1.8708    0
 1.8808    0
 1.8908    0
 1.9009    0
 1.9109    1
 1.9209    0
  1.931    0
  1.941    0
  1.951    0
 1.9611    0
 1.9711    1
 1.9811    0
 1.9912    0
 2.0012    0
 2.0112    0
 2.0212    0
 2.0313    0
 2.0413    0
 2.0513    0
 2.0614    0
 2.0714    0
 2.0814    1
 2.0915    0
 2.1015    0
 2.1115    0
 2.1216    0
 2.1316    0
 2.1416    0
 2.1517    0
 2.1617    0
 2.1717    1
 2.1818    0
 2.1918    0
 2.2018    1
 2.2119    1
 2.2219    1
 2.2319    0
  2.242    0
  2.252    1
  2.262    0
  2.272    0
 2.2821    1
 2.2921    0
 2.3021    0
 2.3122    0
 2.3222    0
 2.3322    0
 2.3423    1
 2.3523    1
 2.3623    0
 2.3724    0
 2.3824    0
 2.3924    0
 2.4025    0
 2.4125    0
 2.4225    1
 2.4326    0
 2.4426    1
 2.4526    0
 2.4627    0
 2.4727    0
 2.4827    0
 2.4928    0
 2.5028    0
 2.5128    1
 2.5228    1
 2.5329    1
 2.5429    0
 2.5529    0
  2.563    0
  2.573    0
  2.583    0
 2.5931    1
 2.6031    0
 2.6131    0
 2.6232    0
 2.6332    0
 2.6432    1
 2.6533    1
 2.6633    2
 2.6733    1
 2.6834    0
 2.6934    0
 2.7034    1
 2.7135    1
 2.7235    2
 2.7335    2
 2.7436    1
 2.7536    0
 2.7636    1
 2.7736    0
 2.7837    0
 2.7937    0
 2.8037    1
 2.8138    2
 2.8238    1
 2.8338    1
 2.8439    1
 2.8539    0
 2.8639    1
  2.874    1
  2.884    0
  2.894    1
 2.9041    0
 2.9141    0
 2.9241    0
 2.9342    2
 2.9442    1
 2.9542    0
 2.9643    0
 2.9743    1
 2.9843    0
 2.9944    0
 3.0044    0
 3.0144    1
 3.0244    0
 3.0345    0
 3.0445    0
 3.0545    2
 3.0646    1
 3.0746    0
 3.0846    1
 3.0947    0
 3.1047    0
 3.1147    0
 3.1248    0
 3.1348    0
 3.1448    0
 3.1549    0
 3.1649    1
 3.1749    0
  3.185    1
  3.195    0
  3.205    1
 3.2151    0
 3.2251    0
 3.2351    0
 3.2452    0
 3.2552    0
 3.2652    0
 3.2752    1
 3.2853    0
 3.2953    0
 3.3053    1
 3.3154    1
 3.3254    1
 3.3354    1
 3.3455    1
 3.3555    1
 3.3655    1
 3.3756    1
 3.3856    2
 3.3956    1
 3.4057    1
 3.4157    1
 3.4257    0
 3.4358    1
 3.4458    0
 3.4558    0
 3.4659    1
 3.4759    1
 3.4859    1
  3.496    1
  3.506    0
  3.516    0
  3.526    1
 3.5361    0
 3.5461    0
 3.5561    0
 3.5662    1
 3.5762    1
 3.5862    0
 3.5963    0
 3.6063    0
 3.6163    0
 3.6264    1
 3.6364    1
 3.6464    1
 3.6565    0
 3.6665    0
 3.6765    0
 3.6866    1
 3.6966    1
 3.7066    1
 3.7167    0
 3.7267    0
 3.7367    0
 3.7468    1
 3.7568    1
 3.7668    2
 3.7768    1
 3.7869    1
 3.7969    1
 3.8069    1
  3.817    0
  3.827    0
  3.837    0
 3.8471    0
 3.8571    0
 3.8671    1
 3.8772    1
 3.8872    0
 3.8972    1
 3.9073    1
 3.9173    1
 3.9273    0
 3.9374    0
 3.9474    1
 3.9574    1
 3.9675    1
 3.9775    0
 3.9875    1
 3.9976    0
 4.0076    1
 4.0176    0
 4.0276    0
 4.0377    0
 4.0477    0
 4.0577    0
 4.0678    1
 4.0778    0
 4.0878    0
 4.0979    0
 4.1079    0
 4.1179    0
  4.128    0
  4.138    0
  4.148    1
 4.1581    2
 4.1681    0
 4.1781    0
 4.1882    0
 4.1982    0
 4.2082    1
 4.2183    0
 4.2283    0
 4.2383    0
 4.2484    0
 4.2584    0
 4.2684    0
 4.2784    1
 4.2885    1
 4.2985    0
 4.3085    0
 4.3186    1
 4.3286    0
 4.3386    0
 4.3487    0
 4.3587    1
 4.3687    0
 4.3788    1
 4.3888    1
 4.3988    0
 4.4089    0
 4.4189    0
 4.4289    0
  4.439    1
  4.449    1
  4.459    0
 4.4691    0
 4.4791    0
 4.4891    0
 4.4992    0
 4.5092    1
 4.5192    0
 4.5292    0
 4.5393    0
 4.5493    0
 4.5593    0
 4.5694    1
 4.5794    0
 4.5894    0
 4.5995    0
 4.6095    0
 4.6195    0
 4.6296    0
 4.6396    1
 4.6496    0
 4.6597    1
 4.6697    0
 4.6797    0
 4.6898    1
 4.6998    0
 4.7098    0
 4.7199    0
 4.7299    0
 4.7399    0
   4.75    0
   4.76    0
   4.77    0
   4.78    0
 4.7901    0
 4.8001    0
 4.8101    0
 4.8202    0
 4.8302    0
 4.8402    0
 4.8503    0
 4.8603    1
 4.8703    0
 4.8804    0
 4.8904    1
 4.9004    0
 4.9105    0
 4.9205    0
 4.9305    0
 4.9406    0
 4.9506    0
 4.9606    1
 4.9707    0
 4.9807    0
 4.9907    0
 5.0008    0
 5.0108    0
 5.0208    0
 5.0308    0
 5.0409    0
 5.0509    0
 5.0609    0
  5.071    0
  5.081    0
  5.091    2
 5.1011    1
 5.1111    1
 5.1211    0
 5.1312    0
 5.1412    0
 5.1512    1
 5.1613    0
 5.1713    0
 5.1813    1
 5.1914    0
 5.2014    0
 5.2114    0
 5.2215    0
 5.2315    0
 5.2415    2
 5.2516    0
 5.2616    0
 5.2716    0
 5.2816    0
 5.2917    1
 5.3017    2
 5.3117    0
 5.3218    0
 5.3318    0
 5.3418    0
 5.3519    2
 5.3619    0
 5.3719    1
  5.382    1
  5.392    0
  5.402    2
 5.4121    1
 5.4221    0
 5.4321    0
 5.4422    0
 5.4522    1
 5.4622    1
 5.4723    1
 5.4823    0
 5.4923    1
 5.5024    1
 5.5124    0
 5.5224    0
 5.5324    3
 5.5425    0
 5.5525    3
 5.5625    0
 5.5726    3
 5.5826    1
 5.5926    1
 5.6027    0
 5.6127    2
 5.6227    0
 5.6328    1
 5.6428    0
 5.6528    1
 5.6629    3
 5.6729    0
 5.6829    0
  5.693    1
  5.703    2
  5.713    1
 5.7231    0
 5.7331    1
 5.7431    1
 5.7532    0
 5.7632    0
 5.7732    1
 5.7832    0
 5.7933    0
 5.8033    1
 5.8133    0
 5.8234    2
 5.8334    0
 5.8434    1
 5.8535    0
 5.8635    0
 5.8735    0
 5.8836    1
 5.8936    0
 5.9036    0
 5.9137    0
 5.9237    1
 5.9337    0
 5.9438    0
 5.9538    0
 5.9638    0
 5.9739    0
 5.9839    0
 5.9939    2
  6.004    0
  6.014    2
  6.024    1
  6.034    1
 6.0441    0
 6.0541    2
 6.0641    1
 6.0742    0
 6.0842    0
 6.0942    1
 6.1043    1
 6.1143    0
 6.1243    0
 6.1344    2
 6.1444    3
 6.1544    0
 6.1645    3
 6.1745    0
 6.1845    1
 6.1946    3
 6.2046    2
 6.2146    0
 6.2247    0
 6.2347    0
 6.2447    0
 6.2548    1
 6.2648    3
 6.2748    3
 6.2848    0
 6.2949    2
 6.3049    0
 6.3149    4
  6.325    6
  6.335    4
  6.345    6
 6.3551    0
 6.3651    3
 6.3751    2
 6.3852    6
 6.3952    3
 6.4052    3
 6.4153    3
 6.4253    0
 6.4353    0
 6.4454    0
 6.4554    1
 6.4654    5
 6.4755    6
 6.4855    3
 6.4955    2
 6.5056    1
 6.5156    8
 6.5256    2
 6.5356    4
 6.5457    2
 6.5557    3
 6.5657    0
 6.5758    2
 6.5858    4
 6.5958    2
 6.6059    2
 6.6159    2
 6.6259    3
  6.636    1
  6.646    0
  6.656    2
 6.6661    1
 6.6761    1
 6.6861    2
 6.6962    2
 6.7062    1
 6.7162    1
 6.7263    1
 6.7363    3
 6.7463    6
 6.7564    1
 6.7664    0
 6.7764    1
 6.7864    3
 6.7965    3
 6.8065    3
 6.8165    1
 6.8266    2
 6.8366    4
 6.8466    1
 6.8567    3
 6.8667    2
 6.8767    3
 6.8868    2
 6.8968    3
 6.9068    4
 6.9169    1
 6.9269    3
 6.9369    1
  6.947    1
  6.957    1
  6.967    4
 6.9771    3
 6.9871    0
 6.9971    0
 7.0072    2
 7.0172    1
 7.0272    1
 7.0372    4
 7.0473    1
 7.0573    3
 7.0673    3
 7.0774    2
 7.0874    3
 7.0974    1
 7.1075    1
 7.1175    2
 7.1275    1
 7.1376    4
 7.1476    0
 7.1576    0
 7.1677    1
 7.1777    0
 7.1877    1
 7.1978    2
 7.2078    0
 7.2178    1
 7.2279    0
 7.2379    0
 7.2479    3
  7.258    0
  7.268    1
  7.278    2
  7.288    3
 7.2981    0
 7.3081    0
 7.3181    0
 7.3282    0
 7.3382    0
 7.3482    1
 7.3583    3
 7.3683    1
 7.3783    3
 7.3884    2
 7.3984    2
 7.4084    1
 7.4185    1
 7.4285    1
 7.4385    0
 7.4486    0
 7.4586    2
 7.4686    1
 7.4787    2
 7.4887    1
 7.4987    2
 7.5088    2
 7.5188    2
 7.5288    4
 7.5388    0
 7.5489    1
 7.5589    3
 7.5689    2
  7.579    1
  7.589    5
  7.599    3
 7.6091    5
 7.6191    6
 7.6291    3
 7.6392    1
 7.6492    3
 7.6592    4
 7.6693    4
 7.6793    4
 7.6893    7
 7.6994    9
 7.7094    4
 7.7194    7
 7.7295    5
 7.7395    6
 7.7495   15
 7.7596    6
 7.7696   10
 7.7796   10
 7.7896   14
 7.7997   15
 7.8097   12
 7.8197   22
 7.8298   31
 7.8398   47
 7.8498   56
 7.8599   61
 7.8699  103
 7.8799  146
   7.89  174
    7.9  245
   7.91  324
 7.9201  425
 7.9301  581
 7.9401  731
 7.9502  886
 7.9602 1082
 7.9702 1276
 7.9803 1512
 7.9903 1732
 8.0003 1970
 8.0104 2096
 8.0204 2208
 8.0304 2391
 8.0404 2351
 8.0505 2371
 8.0605 2335
 8.0705 2285
 8.0806 2229
 8.0906 2096
 8.1006 1826
 8.1107 1644
 8.1207 1414
 8.1307 1186
 8.1408  960
 8.1508  820
 8.1608  599
 8.1709  502
 8.1809  393
 8.1909  302
  8.201  214
  8.211  170
  8.221   98
 8.2311   92
 8.2411   58
 8.2511   39
 8.2612   26
 8.2712   12
 8.2812   13
 8.2912    7
 8.3013   10
 8.3113    8
 8.3213   10
 8.3314    8
 8.3414    6
 8.3514    3
 8.3615    2
 8.3715    8
 8.3815    6
 8.3916    4
 8.4016    4
 8.4116    5
 8.4217    5
 8.4317    5
 8.4417    6
 8.4518    2
 8.4618    7
 8.4718    1
 8.4819    6
 8.4919    6
 8.5019    6
  8.512    7
  8.522    8
  8.532   10
  8.542    6
 8.5521    6
 8.5621    9
 8.5721    9
 8.5822    8
 8.5922    4
 8.6022    9
 8.6123    7
 8.6223    4
 8.6323    8
 8.6424    8
 8.6524   10
 8.6624    5
 8.6725   16
 8.6825   14
 8.6925   13
 8.7026   14
 8.7126   18
 8.7226   24
 8.7327   26
 8.7427   30
 8.7527   37
 8.7628   61
 8.7728   74
 8.7828   72
 8.7928  111
 8.8029  129
 8.8129  152
 8.8229  158
  8.833  200
  8.843  238
  8.853  284
 8.8631  290
 8.8731  303
 8.8831  300
 8.8932  371
 8.9032  382
 8.9132  353
 8.9233  352
 8.9333  306
 8.9433  280
 8.9534  286
 8.9634  263
 8.9734  253
 8.9835  205
 8.9935  156
 9.0035  139
 9.0136  121
 9.0236  101
 9.0336   77
 9.0436   45
 9.0537   44
 9.0637   31
 9.0737   34
 9.0838   15
 9.0938   12
 9.1038    5
 9.1139    8
 9.1239    6
 9.1339    3
  9.144    7
  9.154    0
  9.164    0
 9.1741    1
 9.1841    2
 9.1941    2
 9.2042    0
 9.2142    0
 9.2242    0
 9.2343    0
 9.2443    0
 9.2543    0
 9.2644    0
 9.2744    0
 9.2844    1
 9.2944    0
 9.3045    1
 9.3145    0
 9.3245    0
 9.3346    0
 9.3446    0
 9.3546    0
 9.3647    0
 9.3747    0
 9.3847    0
 9.3948    0
 9.4048    0
 9.4148    1
 9.4249    0
 9.4349    0
 9.4449    1
  9.455    0
  9.465    0
  9.475    0
 9.4851    0
 9.4951    0
 9.5051    0
 9.5152    1
 9.5252    0
 9.5352    0
 9.5452    0
 9.5553    0
 9.5653    0
 9.5753    0
 9.5854    0
 9.5954    1
 9.6054    0
 9.6155    1
 9.6255    0
 9.6355    1
 9.6456    0
 9.6556    0
 9.6656    0
 9.6757    0
 9.6857    0
 9.6957    0
 9.7058    1
 9.7158    0
 9.7258    0
 9.7359    0
 9.7459    0
 9.7559    0
  9.766    0
  9.776    1
  9.786    0
  9.796    0
 9.8061    0
 9.8161    0
 9.8261    0
 9.8362    0
 9.8462    0
 9.8562    0
 9.8663    0
 9.8763    0
 9.8863    0
 9.8964    0
 9.9064    0
 9.9164    0
 9.9265    0
 9.9365    0
 9.9465    0
 9.9566    0
 9.9666    0
 9.9766    0
 9.9867    0
 9.9967    0
10.0067    0
10.0168    0
10.0268    0
10.0368    0
10.0468    0
10.0569    0
10.0669    1
10.0769    0
 10.087    0
 10.097    1
 10.107    0
10.1171    0
10.1271    0
10.1371    0
10.1472    0
10.1572    0
10.1672    0
10.1773    0
10.1873    0
10.1973    0
10.2074    0
10.2174    0
10.2274    0
10.2375    0
10.2475    0
10.2575    0
10.2676    0
10.2776    0
10.2876    0
10.2976    0
10.3077    0
10.3177    0
10.3277    1
10.3378    0
10.3478    0
10.3578    0
10.3679    1
10.3779    0
10.3879    0
 10.398    0
 10.408    0
 10.418    0
10.4281    0
10.4381    0
10.4481    0
10.4582    0
10.4682    0
10.4782    0
10.4883    0
10.4983    1
10.5083    0
10.5184    0
10.5284    0
10.5384    1
10.5484    0
10.5585    0
10.5685    0
10.5785    0
10.5886    0
10.5986    0
10.6086    0
10.6187    0
10.6287    0
10.6387    0
10.6488    0
10.6588    0
10.6688    0
10.6789    0
10.6889    0
10.6989    0
 10.709    0
 10.719    0
 10.729    1
10.7391    1
10.7491    0
10.7591    1
10.7692    0
10.7792    1
10.7892    0
10.7992    0
10.8093    0
10.8193    0
10.8293    0
10.8394    0
10.8494    0
10.8594    0
10.8695    0
10.8795    0
10.8895    0
10.8996    0
10.9096    0
10.9196    1
10.9297    1
10.9397    0
10.9497    0
10.9598    0
10.9698    0
10.9798    0
10.9899    0
10.9999    1
11.0099    1
  11.02    0
  11.03    0
  11.04    1
  11.05    0
11.0601    1
11.0701    0
11.0801    1
11.0902    0
11.1002    0
11.1102    0
11.1203    2
11.1303    1
11.1403    0
11.1504    0
11.1604    0
11.1704    0
11.1805    0
11.1905    0
11.2005    0
11.2106    0
11.2206    3
11.2306    0
11.2407    0
11.2507    0
11.2607    1
11.2708    0
11.2808    0
11.2908    0
11.3008    1
11.3109    0
11.3209    0
11.3309    0
 11.341    0
 11.351    0
 11.361    0
11.3711    0
11.3811    0
11.3911    0
11.4012    0
11.4112    1
11.4212    1
11.4313    0
11.4413    1
11.4513    0
11.4614    0
11.4714    0
11.4814    0
11.4915    0
11.5015    0
11.5115    0
11.5216    1
11.5316    0
11.5416    0
11.5516    0
11.5617    1
11.5717    0
11.5817    0
11.5918    2
11.6018    1
11.6118    0
11.6219    0
11.6319    0
11.6419    2
 11.652    0
 11.662    0
 11.672    0
11.6821    0
11.6921    0
11.7021    0
11.7122    0
11.7222    0
11.7322    0
11.7423    0
11.7523    0
11.7623    0
11.7724    0
11.7824    0
11.7924    0
11.8024    1
11.8125    0
11.8225    0
11.8325    0
11.8426    1
11.8526    0
11.8626    0
11.8727    0
11.8827    0
11.8927    0
11.9028    0
11.9128    2
11.9228    0
11.9329    0
11.9429    1
11.9529    0
 11.963    0
 11.973    0
 11.983    0
11.9931    0
12.0031    0
12.0131    0
12.0232    0
12.0332    0
12.0432    0
12.0532    0
12.0633    0
12.0733    1
12.0833    0
12.0934    0
12.1034    0
12.1134    0
12.1235    0
12.1335    0
12.1435    0
12.1536    0
12.1636    1
12.1736    1
12.1837    0
12.1937    0
12.2037    0
12.2138    0
12.2238    1
12.2338    0
12.2439    0
12.2539    3
12.2639    0
 12.274    0
 12.284    0
 12.294    0
 12.304    1
12.3141    0
12.3241    0
12.3341    0
12.3442    0
12.3542    0
12.3642    0
12.3743    1
12.3843    1
12.3943    0
12.4044    0
12.4144    0
12.4244    0
12.4345    0
12.4445    1
12.4545    0
12.4646    1
12.4746    0
12.4846    0
12.4947    0
12.5047    1
12.5147    0
12.5248    0
12.5348    0
12.5448    1
12.5548    1
12.5649    1
12.5749    0
12.5849    0
 12.595    0
 12.605    0
 12.615    0
12.6251    0
12.6351    0
12.6451    1
12.6552    1
12.6652    0
12.6752    0
12.6853    0
12.6953    0
12.7053    1
12.7154    0
12.7254    0
12.7354    0
12.7455    0
12.7555    1
12.7655    2
12.7756    0
12.7856    0
12.7956    0
12.8056    0
12.8157    0
12.8257    0
12.8357    1
12.8458    1
12.8558    0
12.8658    0
12.8759    0
12.8859    1
12.8959    0
 12.906    0
 12.916    0
 12.926    0
12.9361    0
12.9461    0
12.9561    1
12.9662    1
12.9762    0
12.9862    0
12.9963    0
13.0063    0
13.0163    0
13.0264    0
13.0364    0
13.0464    0
13.0564    0
13.0665    0
13.0765    0
13.0865    0
13.0966    1
